Time (s)	Motor Command (V)	Desired Position  (V)	Actual Position (V)
0.003	2.000	2.100	1.966
0.054	2.000	2.100	1.967
0.104	2.000	2.100	1.969
0.153	2.000	2.100	1.968
0.204	2.000	2.100	1.968
0.254	2.000	2.100	1.970
0.303	2.000	2.100	1.969
0.354	2.000	2.100	1.969
0.404	2.000	2.100	1.969
0.453	2.000	2.100	1.968
0.503	2.000	2.100	1.969
0.553	2.000	2.100	1.967
0.602	2.000	2.100	1.969
0.652	2.000	2.100	1.968
0.701	2.000	2.100	1.968
0.751	2.000	2.100	1.965
0.800	2.000	2.100	1.968
0.850	2.000	2.100	1.968
0.901	2.000	2.100	1.969
0.951	2.000	2.100	1.968
1.001	2.000	2.100	1.966
1.051	2.000	2.100	1.969
1.101	2.000	2.100	1.967
1.151	2.000	2.100	1.968
1.201	2.000	2.100	1.969
1.251	2.000	2.100	1.970
1.300	2.000	2.100	1.967
1.351	2.000	2.126	1.949
1.402	2.000	2.127	1.968
1.452	2.000	2.127	1.969
1.502	2.000	2.128	1.966
1.552	2.000	2.129	1.968
1.601	2.000	2.130	1.967
1.651	2.000	2.131	1.968
1.701	2.000	2.131	1.969
1.750	2.000	2.132	1.968
1.800	2.000	2.133	1.969
1.850	2.000	2.134	1.969
1.900	2.000	2.134	1.967
1.950	2.000	2.135	1.959
2.000	2.000	2.136	1.969
2.049	2.000	2.137	1.969
2.100	2.000	2.137	1.967
2.150	2.000	2.138	1.970
2.199	2.000	2.139	1.969
2.250	2.000	2.139	1.970
2.299	2.000	2.140	1.970
2.349	2.000	2.140	1.968
2.400	2.000	2.141	1.967
2.450	2.000	2.142	1.970
2.499	2.000	2.142	1.969
2.550	2.000	2.143	1.969
2.600	2.000	2.143	1.969
2.649	2.000	2.144	1.970
2.699	2.000	2.144	1.967
2.749	2.000	2.145	1.968
2.798	2.000	2.145	1.966
2.848	2.000	2.145	1.963
2.897	2.000	2.146	1.967
2.948	2.000	2.146	1.964
2.997	2.000	2.147	1.961
3.047	2.000	2.147	1.964
3.097	2.000	2.147	1.963
3.147	2.000	2.148	1.958
3.197	2.000	2.148	1.965
3.248	2.000	2.148	1.967
3.298	2.000	2.148	1.962
3.347	2.000	2.149	1.965
3.398	2.000	2.149	1.965
3.447	2.000	2.149	1.970
3.496	2.000	2.149	1.968
3.546	2.000	2.149	1.969
3.595	2.000	2.150	1.966
3.646	2.000	2.150	1.969
3.696	2.000	2.150	1.969
3.745	2.000	2.150	1.967
3.795	2.000	2.150	1.967
3.845	2.000	2.150	1.969
3.894	2.000	2.150	1.970
3.945	2.000	2.150	1.970
3.994	2.000	2.150	1.969
4.044	2.000	2.150	1.969
4.094	2.000	2.150	1.968
4.144	2.000	2.150	1.970
4.194	2.000	2.150	1.969
4.244	2.000	2.150	1.968
4.294	2.000	2.149	1.969
4.344	2.000	2.149	1.968
4.394	2.000	2.149	1.968
4.444	2.000	2.149	1.969
4.494	2.000	2.149	1.968
4.544	2.100	2.148	1.968
4.595	2.100	2.148	1.964
4.644	2.100	2.148	1.967
4.694	2.100	2.148	1.968
4.745	2.100	2.147	1.968
4.794	2.100	2.147	1.969
4.844	2.100	2.147	1.968
4.894	2.100	2.146	1.969
4.944	2.200	2.146	1.967
4.994	2.200	2.146	1.965
5.044	2.200	2.145	1.969
5.094	2.200	2.145	1.967
5.144	2.200	2.144	1.968
5.194	2.200	2.144	1.969
5.244	2.200	2.143	1.967
5.293	2.300	2.143	1.967
5.343	2.300	2.142	1.968
5.393	2.300	2.142	1.967
5.443	2.300	2.141	1.968
5.494	2.300	2.140	1.969
5.543	2.300	2.140	1.968
5.593	2.300	2.139	1.968
5.643	2.300	2.139	1.968
5.692	2.300	2.138	1.968
5.743	2.300	2.137	1.969
5.793	2.300	2.137	1.969
5.842	2.300	2.136	1.968
5.893	2.300	2.135	1.967
5.943	2.400	2.135	1.968
5.993	2.400	2.134	1.967
6.043	2.400	2.133	1.968
6.093	2.400	2.132	1.968
6.143	2.400	2.132	1.966
6.192	2.400	2.131	1.969
6.242	2.400	2.130	1.968
6.291	2.400	2.129	1.969
6.342	2.400	2.128	1.969
6.392	2.500	2.128	1.968
6.442	2.500	2.127	1.955
6.492	2.500	2.126	1.969
6.543	2.500	2.125	1.969
6.592	2.500	2.124	1.968
6.642	2.500	2.123	1.967
6.693	2.600	2.122	1.968
6.742	2.600	2.122	1.968
6.792	2.600	2.121	1.967
6.843	2.600	2.120	1.968
6.892	2.600	2.119	1.970
6.942	2.700	2.118	1.969
6.992	2.700	2.117	1.969
7.042	2.700	2.116	1.970
7.092	2.700	2.115	1.960
7.142	2.800	2.114	1.961
7.192	2.800	2.113	1.969
7.242	2.800	2.112	1.968
7.292	2.800	2.111	1.967
7.341	2.900	2.110	1.969
7.391	2.900	2.109	1.964
7.440	2.900	2.108	1.968
7.490	2.900	2.107	1.970
7.541	2.900	2.106	1.969
7.591	2.900	2.105	1.965
7.640	2.900	2.104	1.968
7.691	2.900	2.103	1.970
7.740	2.900	2.102	1.970
7.790	2.900	2.101	1.968
7.841	2.900	2.100	1.969
7.891	2.900	2.099	1.970
7.941	2.900	2.100	1.967
7.991	2.900	2.100	1.970
8.041	2.900	2.100	1.970
8.090	2.900	2.100	1.971
8.140	2.900	2.100	1.971
8.190	2.900	2.100	1.964
8.240	2.900	2.100	1.969
8.290	2.900	2.100	1.970
8.340	2.900	2.100	1.969
8.390	2.900	2.100	1.966
8.441	2.900	2.100	1.968
8.491	2.900	2.100	1.970
8.540	2.900	2.100	1.968
8.590	2.900	2.100	1.971
8.640	2.900	2.100	1.967
8.689	3.000	2.100	1.968
8.740	3.000	2.100	1.969
8.789	3.000	2.100	1.970
8.839	3.000	2.100	1.969
8.890	3.000	2.100	1.969
8.940	3.100	2.100	1.971
8.989	3.100	2.100	1.970
9.040	3.100	2.100	1.970
9.090	3.100	2.100	1.972
9.139	3.200	2.100	1.973
9.189	3.200	2.100	1.970
9.239	3.200	2.100	1.969
9.289	3.200	2.100	1.970
9.339	3.300	2.100	1.969
9.389	3.300	2.100	1.971
9.439	3.300	2.100	1.970
9.489	3.300	2.100	1.971
9.539	3.300	2.100	1.970
9.589	3.300	2.100	1.968
9.639	3.300	2.100	1.971
9.690	3.300	2.100	1.969
9.739	3.300	2.100	1.969
9.789	3.300	2.100	1.971
9.840	3.400	2.100	1.970
9.890	3.500	2.100	1.971
9.940	3.700	2.100	1.966
9.990	3.800	2.100	1.969
10.040	4.000	2.100	1.969
10.090	4.000	2.100	1.969
10.140	4.000	2.100	1.971
10.190	4.000	2.100	1.969
10.240	4.000	2.100	1.967
10.290	4.000	2.100	1.968
10.340	4.000	2.100	1.969
10.390	4.000	2.100	1.967
10.440	4.000	2.100	1.970
10.491	4.100	2.100	1.967
10.540	4.100	2.100	1.969
10.590	4.100	2.100	1.969
10.641	4.100	2.100	1.970
10.690	4.200	2.100	1.968
10.740	4.200	2.100	1.968
10.791	4.200	2.100	1.968
10.841	4.200	2.100	1.968
10.890	4.200	2.100	1.967
10.940	4.200	2.100	1.971
10.989	4.200	2.100	1.968
11.040	4.200	2.100	1.971
11.090	4.200	2.100	1.970
11.140	4.200	2.100	1.972
11.190	4.200	2.100	1.969
11.241	4.200	2.100	1.970
11.290	4.200	2.100	1.970
11.340	4.200	2.100	1.967
11.391	4.200	2.100	1.968
11.441	4.200	2.100	1.971
11.490	4.300	2.100	1.969
11.541	4.300	2.100	1.969
11.590	4.300	2.100	1.970
11.640	4.300	2.100	1.968
11.691	4.300	2.100	1.969
11.741	4.300	2.100	1.970
11.790	4.300	2.100	1.968
11.841	4.400	2.100	1.969
11.891	4.400	2.100	1.969
11.941	4.400	2.100	1.969
11.990	4.500	2.100	1.967
12.040	4.500	2.100	1.966
12.090	4.500	2.100	1.966
12.140	4.600	2.100	1.966
12.190	4.600	2.100	1.964
12.240	4.600	2.100	1.966
12.290	4.700	2.100	1.970
12.341	4.700	2.100	1.963
12.390	4.700	2.100	1.967
12.440	4.700	2.100	1.963
12.490	4.800	2.100	1.969
12.539	4.800	2.100	1.965
12.590	4.800	2.100	1.960
12.640	4.900	2.100	1.968
12.689	4.900	2.100	1.968
12.740	4.900	2.100	1.960
12.790	5.000	2.100	1.968
12.839	5.000	2.100	1.969
12.890	5.000	2.100	1.967
12.940	5.100	2.100	1.966
12.990	5.100	2.100	1.961
13.040	5.100	2.100	1.961
13.091	5.100	2.100	1.955
13.141	5.200	2.100	1.962
13.190	5.200	2.100	1.959
13.241	5.200	2.100	1.970
13.290	5.300	2.100	1.966
13.340	5.300	2.100	1.964
13.391	5.300	2.100	1.962
13.441	5.300	2.100	1.967
13.490	5.300	2.100	1.965
13.541	5.300	2.100	1.961
13.591	5.300	2.100	1.968
13.640	5.300	2.100	1.966
13.691	5.300	2.100	1.965
13.741	5.300	2.100	1.968
13.790	5.500	2.100	1.970
13.840	5.600	2.100	1.970
13.890	5.700	2.100	1.968
13.940	5.800	2.100	1.966
13.990	5.800	2.100	1.968
14.040	5.800	2.100	1.968
14.089	5.800	2.100	1.968
14.139	5.800	2.100	1.972
14.188	5.800	2.100	1.959
14.238	5.900	2.100	1.967
14.288	5.900	2.100	1.968
14.338	5.900	2.100	1.966
14.388	5.900	2.100	1.968
14.438	5.900	2.100	1.968
14.487	5.900	2.100	1.964
14.538	5.900	2.100	1.966
14.587	5.900	2.100	1.955
14.636	5.900	2.100	1.967
14.687	5.900	2.100	1.967
14.736	6.000	2.100	1.968
14.786	6.100	2.100	1.967
14.836	6.300	2.100	1.967
14.885	6.400	2.100	1.966
14.936	6.500	2.100	1.967
14.986	6.500	2.100	1.969
15.036	6.500	2.100	1.968
15.086	6.600	2.100	1.966
15.136	6.600	2.100	1.960
15.186	6.600	2.100	1.968
15.236	6.600	2.100	1.967
15.286	6.600	2.100	1.968
15.336	6.600	2.100	1.966
15.386	6.600	2.100	1.967
15.436	6.600	2.100	1.967
15.485	6.600	2.100	1.967
15.535	6.600	2.100	1.966
15.585	6.600	2.100	1.968
15.634	6.800	2.100	1.967
15.685	7.000	2.100	1.966
15.735	7.000	2.100	1.968
15.784	7.000	2.100	1.967
15.835	7.000	2.100	1.966
15.884	7.000	2.100	1.966
15.933	7.000	2.100	1.962
15.984	7.100	2.100	1.968
16.034	7.100	2.100	1.966
16.083	7.100	2.100	1.966
16.134	7.100	2.100	1.954
16.184	7.100	2.100	1.967
16.234	7.100	2.100	1.965
16.284	7.100	2.100	1.967
16.334	7.100	2.100	1.967
16.384	7.100	2.100	1.966
16.434	7.100	2.100	1.966
16.485	7.200	2.100	1.967
16.534	7.300	2.100	1.965
16.584	7.400	2.100	1.967
16.635	7.400	2.100	1.966
16.685	7.400	2.100	1.966
16.735	7.400	2.100	1.967
16.786	7.500	2.100	1.967
16.836	7.500	2.100	1.965
16.886	7.500	2.100	1.968
16.936	7.500	2.100	1.966
16.986	7.500	2.100	1.967
17.035	7.600	2.100	1.965
17.085	7.600	2.100	1.968
17.136	7.600	2.100	1.966
17.186	7.600	2.100	1.968
17.236	7.700	2.100	1.965
17.287	7.700	2.100	1.967
17.336	7.700	2.100	1.967
17.385	7.700	2.100	1.967
17.436	7.700	2.100	1.968
17.485	7.800	2.100	1.967
17.535	7.800	2.100	1.967
17.586	7.800	2.100	1.967
17.636	7.800	2.100	1.966
17.685	7.900	2.100	1.967
17.736	7.900	2.100	1.969
17.786	7.900	2.100	1.969
17.836	7.900	2.100	1.966
17.886	7.900	2.100	1.958
17.936	7.900	2.100	1.966
17.986	7.900	2.100	1.968
18.036	7.900	2.100	1.971
18.086	7.900	2.100	1.966
18.136	7.900	2.100	1.965
18.186	7.900	2.100	1.972
18.237	7.900	2.100	1.971
18.286	7.900	2.100	1.967
18.336	7.900	2.100	1.969
18.387	7.900	2.100	1.971
18.437	7.900	2.100	1.971
18.487	7.900	2.100	1.969
18.538	7.900	2.100	1.964
18.588	7.900	2.100	1.972
18.637	7.900	2.100	1.969
18.687	7.900	2.100	1.958
18.737	7.900	2.100	1.967
18.786	7.900	2.100	1.972
18.836	7.900	2.100	1.972
18.886	7.900	2.100	1.970
18.935	7.900	2.100	1.969
18.986	7.900	2.100	1.967
19.036	7.900	2.100	1.973
19.086	7.900	2.100	1.972
19.136	7.900	2.100	1.953
19.185	7.900	2.100	1.971
19.235	7.900	2.100	1.972
19.286	7.900	2.100	1.972
19.335	7.900	2.100	1.971
19.385	7.900	2.100	1.973
19.435	7.900	2.100	1.972
19.484	7.900	2.100	1.972
19.535	7.900	2.100	1.971
19.584	8.000	2.100	1.973
19.633	8.000	2.100	1.970
19.684	8.000	2.100	1.973
19.734	8.000	2.100	1.974
19.784	8.000	2.100	1.971
19.834	8.100	2.100	1.972
19.884	8.100	2.100	1.974
19.934	8.100	2.100	1.974
19.984	8.100	2.100	1.972
20.034	8.200	2.100	1.975
20.084	8.200	2.100	1.973
20.135	8.200	2.100	1.949
20.185	8.200	2.100	1.975
20.234	8.200	2.100	1.973
20.284	8.200	2.100	1.976
20.335	8.200	2.100	1.977
20.384	8.200	2.100	1.975
20.434	8.200	2.100	1.976
20.485	8.200	2.100	1.976
20.535	8.200	2.100	1.977
20.584	8.200	2.100	1.976
20.635	8.200	2.100	1.977
20.685	8.200	2.100	1.977
20.734	8.200	2.100	1.977
20.784	8.200	2.100	1.979
20.834	8.200	2.100	1.979
20.884	8.200	2.100	1.981
20.934	8.200	2.100	1.980
20.984	8.200	2.100	1.982
21.034	8.200	2.100	1.983
21.085	8.200	2.100	1.983
21.134	8.200	2.100	1.957
21.184	8.200	2.100	1.981
21.235	8.200	2.100	1.985
21.284	8.200	2.100	1.983
21.333	8.200	2.100	1.974
21.384	8.200	2.100	1.982
21.433	8.300	2.100	1.982
21.483	8.300	2.100	1.984
21.534	8.300	2.100	1.982
21.583	8.300	2.100	1.973
21.633	8.400	2.100	1.972
21.683	8.400	2.100	1.979
21.733	8.400	2.100	1.981
21.783	8.400	2.100	1.982
21.834	8.400	2.100	1.985
21.884	8.400	2.100	1.985
21.934	8.400	2.100	1.984
21.984	8.400	2.100	1.986
22.035	8.400	2.100	1.984
22.084	8.400	2.100	1.983
22.134	8.400	2.100	1.959
22.185	8.400	2.100	1.985
22.235	8.400	2.100	1.984
22.284	8.400	2.100	1.985
22.335	8.400	2.100	1.985
22.385	8.500	2.100	1.987
22.435	8.500	2.100	1.985
22.485	8.500	2.100	1.987
22.535	8.600	2.100	1.987
22.585	8.600	2.100	1.987
22.635	8.600	2.100	1.986
22.685	8.600	2.100	1.987
22.735	8.600	2.100	1.987
22.785	8.600	2.100	1.980
22.834	8.600	2.100	1.986
22.884	8.600	2.100	1.978
22.934	8.600	2.100	1.984
22.984	8.600	2.100	1.976
23.034	8.600	2.100	1.986
23.085	8.600	2.100	1.989
23.135	8.600	2.100	1.963
23.184	8.600	2.100	1.987
23.235	8.600	2.100	1.990
23.284	8.600	2.100	1.994
23.333	8.600	2.100	1.996
23.384	8.600	2.100	1.992
23.434	8.600	2.100	1.988
23.484	8.600	2.100	1.988
23.534	8.600	2.100	1.997
23.584	8.600	2.100	1.997
23.633	8.600	2.100	1.999
23.683	8.600	2.100	1.999
23.732	8.600	2.100	2.000
23.782	8.600	2.100	2.000
23.832	8.600	2.100	2.000
23.882	8.600	2.100	2.002
23.932	8.600	2.100	2.001
23.982	8.600	2.100	2.002
24.032	8.600	2.100	2.003
24.082	8.600	2.100	2.002
24.133	8.600	2.100	2.004
24.182	8.600	2.100	2.002
24.232	8.600	2.100	2.003
24.283	8.600	2.100	2.003
24.332	8.600	2.100	2.003
24.382	8.600	2.100	2.003
24.432	8.600	2.100	2.003
24.482	8.600	2.100	2.003
24.532	8.600	2.100	2.002
24.582	8.600	2.100	2.003
24.631	8.600	2.100	2.003
24.682	8.600	2.100	1.997
24.732	8.600	2.100	2.004
24.782	8.600	2.100	2.003
24.831	8.600	2.100	2.003
24.881	8.600	2.100	2.003
24.931	8.600	2.100	2.003
24.981	8.600	2.100	2.003
25.030	8.600	2.100	2.003
25.079	8.600	2.100	1.989
25.129	8.600	2.100	2.004
25.179	8.600	2.100	2.002
25.229	8.600	2.100	2.004
25.280	8.600	2.100	2.004
25.329	8.600	2.100	2.003
25.379	8.600	2.100	2.004
25.429	8.600	2.100	2.005
25.478	8.600	2.100	2.003
25.529	8.600	2.100	2.004
25.579	8.600	2.100	2.004
25.628	8.600	2.100	2.004
25.679	8.600	2.100	2.003
25.729	8.600	2.100	2.006
25.779	8.600	2.100	2.005
25.829	8.600	2.100	2.003
25.879	8.600	2.100	2.005
25.929	8.600	2.100	2.004
25.979	8.600	2.100	2.006
26.030	8.600	2.100	2.005
26.079	8.600	2.100	2.002
26.129	8.600	2.100	2.003
26.180	8.600	2.100	2.006
26.229	8.600	2.100	2.003
26.278	8.600	2.100	2.004
26.328	8.600	2.100	2.006
26.377	8.600	2.100	2.004
26.428	8.600	2.100	2.007
26.477	8.600	2.100	2.007
26.527	8.600	2.100	2.005
26.578	8.600	2.100	2.005
26.628	8.600	2.100	2.007
26.677	8.600	2.100	2.005
26.728	8.600	2.100	2.004
26.778	8.600	2.100	2.006
26.827	8.600	2.100	2.004
26.878	8.600	2.100	2.007
26.928	8.600	2.100	2.007
26.977	8.600	2.100	2.008
27.027	8.600	2.100	2.008
27.077	8.600	2.100	2.007
27.127	8.600	2.100	2.007
27.177	8.600	2.100	2.007
27.227	8.600	2.100	2.009
27.277	8.600	2.100	2.008
27.327	8.600	2.100	2.007
27.377	8.600	2.100	2.006
27.426	8.600	2.100	2.006
27.477	8.600	2.100	2.006
27.526	8.600	2.100	2.008
27.576	8.600	2.100	2.009
27.627	8.600	2.100	2.008
27.676	8.600	2.100	2.008
27.725	8.600	2.100	2.006
27.776	8.600	2.100	2.010
27.826	8.600	2.100	2.010
27.876	8.600	2.100	2.009
27.926	8.600	2.100	2.010
27.976	8.600	2.100	2.010
28.026	8.600	2.100	2.011
28.076	8.600	2.100	2.010
28.126	8.600	2.100	2.010
28.176	8.600	2.100	2.009
28.226	8.600	2.100	2.011
28.276	8.600	2.100	2.011
28.326	8.600	2.100	2.011
28.376	8.600	2.100	2.012
28.425	8.600	2.100	2.010
28.474	8.600	2.100	2.012
28.524	8.600	2.100	2.006
28.573	8.600	2.100	2.003
28.623	8.600	2.100	2.010
28.672	8.600	2.100	2.010
28.722	8.600	2.100	2.009
28.771	8.600	2.100	2.008
28.820	8.600	2.100	2.008
28.871	8.600	2.100	2.010
28.920	8.600	2.100	2.009
28.970	8.600	2.100	2.008
29.021	8.600	2.100	2.010
29.070	8.600	2.100	2.004
29.120	8.600	2.100	2.009
29.170	8.600	2.100	2.010
29.220	8.600	2.100	2.008
29.270	8.600	2.100	2.010
29.321	8.600	2.100	2.009
29.371	8.600	2.100	2.010
29.421	8.600	2.100	2.010
29.471	8.600	2.100	1.998
29.520	8.600	2.100	2.010
29.570	8.600	2.100	2.007
29.621	8.600	2.100	2.012
29.670	8.500	2.100	2.010
29.720	8.500	2.100	2.010
29.771	8.500	2.100	2.011
29.821	8.500	2.100	2.009
29.870	8.500	2.100	2.000
29.921	8.500	2.100	2.009
29.971	8.500	2.100	2.010
30.020	8.500	2.100	2.008
30.071	8.500	2.100	2.009
30.121	8.500	2.100	2.012
30.170	8.500	2.100	2.008
30.221	8.500	2.100	2.009
30.271	8.400	2.100	2.011
30.321	8.400	2.100	2.009
30.371	8.400	2.100	2.006
30.422	8.400	2.100	2.010
30.471	8.400	2.100	2.010
30.521	8.400	2.100	2.008
30.572	8.400	2.100	2.010
30.621	8.400	2.100	2.011
30.671	8.400	2.100	2.008
30.722	8.400	2.100	2.010
30.772	8.400	2.100	2.012
30.821	8.400	2.100	2.009
30.872	8.400	2.100	2.010
30.922	8.400	2.100	2.012
30.972	8.400	2.100	2.010
31.022	8.400	2.100	2.010
31.072	8.400	2.100	2.011
31.122	8.400	2.100	2.008
31.172	8.400	2.100	2.010
31.222	8.400	2.100	2.010
31.272	8.400	2.100	2.010
31.321	8.400	2.100	2.010
31.371	8.400	2.100	2.010
31.420	8.400	2.100	2.010
31.470	8.400	2.100	2.006
31.520	8.400	2.100	2.010
31.570	8.400	2.100	2.009
31.621	8.400	2.100	2.011
31.671	8.400	2.100	2.010
31.720	8.400	2.100	2.010
31.771	8.400	2.100	2.012
31.820	8.400	2.100	2.009
31.869	8.400	2.100	2.008
31.920	8.400	2.100	2.011
31.969	8.400	2.100	2.009
32.019	8.400	2.100	2.007
32.070	8.400	2.100	2.009
32.120	8.500	2.100	2.010
32.170	8.500	2.100	2.012
32.220	8.500	2.100	2.011
32.270	8.500	2.100	2.012
32.319	8.500	2.100	2.012
32.369	8.500	2.100	2.013
32.418	8.500	2.100	2.010
32.468	8.500	2.100	2.012
32.518	8.500	2.100	2.011
32.567	8.500	2.100	2.012
32.617	8.500	2.100	2.011
32.667	8.500	2.100	2.011
32.717	8.500	2.100	2.010
32.767	8.600	2.100	2.011
32.817	8.600	2.100	2.012
32.867	8.600	2.100	2.011
32.918	8.600	2.100	2.012
32.967	8.600	2.100	2.012
33.017	8.600	2.100	2.010
33.068	8.600	2.100	2.011
33.117	8.600	2.100	2.012
33.166	8.600	2.100	2.013
33.217	8.600	2.100	2.012
33.267	8.600	2.100	2.012
33.316	8.600	2.100	2.009
33.367	8.600	2.100	2.010
33.417	8.700	2.100	2.013
33.467	8.700	2.100	2.012
33.517	8.700	2.100	2.013
33.568	8.700	2.100	2.013
33.617	8.700	2.100	2.012
33.668	8.700	2.100	2.015
33.719	8.700	2.100	2.015
33.768	8.700	2.100	2.014
33.818	8.700	2.100	2.014
33.869	8.700	2.100	2.014
33.919	8.800	2.100	2.015
33.968	8.800	2.100	2.014
34.019	8.800	2.100	2.014
34.069	8.800	2.100	2.015
34.119	8.800	2.100	2.015
34.169	8.800	2.100	2.017
34.220	8.800	2.100	2.016
34.270	8.800	2.100	2.018
34.320	8.900	2.100	2.015
34.370	8.900	2.100	2.016
34.421	8.900	2.100	2.018
34.471	8.900	2.100	2.021
34.521	8.900	2.100	2.020
34.572	8.900	2.100	2.020
34.622	8.900	2.100	2.021
34.671	8.900	2.100	2.019
34.721	8.900	2.100	2.024
34.770	8.900	2.100	2.024
34.820	8.900	2.100	2.024
34.871	8.900	2.100	2.026
34.921	8.900	2.100	2.028
34.970	8.900	2.100	2.030
35.020	8.900	2.100	2.032
35.070	8.900	2.100	2.034
35.119	8.900	2.100	2.033
35.169	8.800	2.100	2.038
35.219	8.800	2.100	2.038
35.269	8.800	2.100	2.041
35.319	8.800	2.100	2.043
35.369	8.800	2.100	2.044
35.419	8.800	2.100	2.047
35.469	8.800	2.100	2.033
35.519	8.800	2.100	2.050
35.569	8.800	2.100	2.052
35.619	8.700	2.100	2.052
35.668	8.700	2.100	2.052
35.719	8.700	2.100	2.051
35.768	8.700	2.100	2.051
35.817	8.700	2.100	2.053
35.868	8.700	2.100	2.054
35.917	8.700	2.100	2.052
35.967	8.700	2.100	2.051
36.018	8.700	2.100	2.054
36.068	8.700	2.100	2.053
36.118	8.700	2.100	2.054
36.168	8.700	2.100	2.055
36.219	8.700	2.100	2.054
36.269	8.700	2.100	2.054
36.319	8.600	2.100	2.055
36.370	8.600	2.100	2.055
36.419	8.600	2.100	2.055
36.469	8.600	2.100	2.054
36.519	8.600	2.100	2.056
36.568	8.600	2.100	2.053
36.618	8.600	2.100	2.050
36.669	8.600	2.100	2.055
36.718	8.600	2.100	2.052
36.768	8.600	2.100	2.054
36.819	8.600	2.100	2.053
36.869	8.600	2.100	2.054
36.919	8.500	2.100	2.053
36.969	8.500	2.100	2.054
37.019	8.500	2.100	2.054
37.069	8.500	2.100	2.055
37.119	8.500	2.100	2.055
37.169	8.500	2.100	2.055
37.219	8.500	2.100	2.053
37.269	8.500	2.100	2.053
37.319	8.500	2.100	2.053
37.368	8.500	2.100	2.054
37.419	8.500	2.100	2.055
37.468	8.500	2.100	2.041
37.518	8.400	2.100	2.059
37.569	8.400	2.100	2.056
37.619	8.400	2.100	2.055
37.668	8.400	2.100	2.056
37.719	8.400	2.100	2.054
37.769	8.400	2.100	2.054
37.819	8.400	2.100	2.054
37.869	8.400	2.100	2.055
37.919	8.400	2.100	2.055
37.969	8.400	2.100	2.053
38.019	8.400	2.100	2.055
38.070	8.400	2.100	2.055
38.120	8.400	2.100	2.055
38.170	8.400	2.100	2.053
38.220	8.400	2.100	2.054
38.271	8.400	2.100	2.054
38.321	8.400	2.100	2.054
38.370	8.400	2.100	2.050
38.421	8.400	2.100	2.054
38.470	8.400	2.100	2.053
38.520	8.400	2.100	2.053
38.570	8.400	2.100	2.055
38.620	8.400	2.100	2.054
