Time (s)	Motor Command (V)	Desired Position  (V)	Actual Position (V)
0.004	2.000	2.100	1.968
0.055	2.000	2.100	1.968
0.106	2.000	2.100	1.967
0.156	2.000	2.100	1.964
0.207	2.000	2.100	1.966
0.257	2.000	2.100	1.969
0.307	2.000	2.100	1.971
0.358	2.000	2.100	1.961
0.408	2.000	2.100	1.971
0.458	2.000	2.100	1.969
0.509	2.000	2.100	1.971
0.559	2.000	2.100	1.972
0.609	2.000	2.100	1.971
0.659	2.000	2.100	1.969
0.710	2.000	2.100	1.970
0.760	2.000	2.100	1.970
0.810	2.000	2.100	1.967
0.860	2.000	2.100	1.969
0.911	2.000	2.100	1.970
0.961	2.000	2.100	1.969
1.011	2.000	2.100	1.969
1.061	2.000	2.100	1.969
1.111	2.000	2.100	1.970
1.161	2.000	2.100	1.967
1.211	2.000	2.100	1.968
1.261	2.000	2.100	1.969
1.311	2.000	2.100	1.967
1.361	2.000	2.100	1.969
1.412	2.000	2.100	1.969
1.461	2.000	2.100	1.967
1.512	2.000	2.100	1.969
1.562	2.000	2.100	1.969
1.612	2.000	2.100	1.967
1.662	2.000	2.100	1.965
1.713	2.000	2.100	1.970
1.763	2.000	2.100	1.969
1.813	2.000	2.100	1.968
1.863	2.000	2.100	1.969
1.914	2.000	2.100	1.969
1.963	2.000	2.100	1.970
2.013	2.000	2.100	1.967
2.064	2.000	2.100	1.969
2.114	2.000	2.100	1.971
2.164	2.000	2.100	1.966
2.214	2.000	2.100	1.965
2.264	2.000	2.100	1.970
2.313	2.000	2.100	1.968
2.364	2.000	2.100	1.968
2.414	2.000	2.100	1.967
2.463	2.000	2.100	1.967
2.514	2.000	2.100	1.968
2.564	2.000	2.100	1.968
2.614	2.000	2.100	1.969
2.664	2.000	2.100	1.968
2.714	2.000	2.100	1.969
2.764	2.000	2.100	1.969
2.814	2.000	2.100	1.967
2.864	2.000	2.100	1.968
2.913	2.000	2.100	1.967
2.963	2.000	2.100	1.970
3.013	2.000	2.100	1.970
3.063	2.000	2.100	1.968
3.113	2.000	2.100	1.967
3.164	2.000	2.100	1.969
3.214	2.000	2.100	1.968
3.263	2.000	2.100	1.968
3.314	2.000	2.100	1.971
3.363	2.000	2.100	1.968
3.413	2.000	2.100	1.966
3.464	2.000	2.100	1.969
3.514	2.000	2.100	1.969
3.564	2.000	2.100	1.969
3.614	2.000	2.100	1.970
3.664	2.000	2.100	1.970
3.713	2.000	2.100	1.966
3.764	2.000	2.100	1.968
3.814	2.000	2.100	1.970
3.863	2.000	2.100	1.968
3.914	2.000	2.100	1.969
3.964	2.000	2.100	1.971
4.013	2.000	2.100	1.968
4.064	2.000	2.100	1.966
4.114	2.000	2.100	1.970
4.164	2.000	2.100	1.967
4.214	2.000	2.100	1.969
4.264	2.000	2.100	1.969
4.313	2.000	2.100	1.969
4.364	2.000	2.100	1.969
4.414	2.000	2.100	1.969
4.464	2.000	2.100	1.970
4.514	2.000	2.100	1.969
4.564	2.000	2.100	1.969
4.614	2.000	2.100	1.971
4.664	2.000	2.100	1.969
4.715	2.000	2.100	1.970
4.764	2.000	2.100	1.969
4.814	2.000	2.100	1.971
4.865	2.000	2.100	1.969
4.914	2.000	2.100	1.968
4.963	2.000	2.100	1.969
5.014	2.000	2.100	1.970
5.064	2.000	2.100	1.969
5.114	2.000	2.100	1.971
5.164	2.000	2.100	1.970
5.214	2.000	2.100	1.971
5.264	2.000	2.100	1.970
5.315	2.000	2.100	1.972
5.365	2.000	2.100	1.971
5.415	2.000	2.100	1.969
5.465	2.000	2.100	1.970
5.516	2.000	2.100	1.971
5.565	2.000	2.100	1.969
5.615	2.000	2.100	1.965
5.666	2.000	2.100	1.970
5.716	2.000	2.100	1.970
5.765	2.000	2.100	1.970
5.816	2.000	2.100	1.970
5.866	2.000	2.100	1.970
5.915	2.000	2.100	1.970
5.965	2.000	2.100	1.971
6.015	2.000	2.100	1.970
6.065	2.000	2.100	1.970
6.116	2.000	2.100	1.970
6.167	2.000	2.100	1.971
6.216	2.000	2.100	1.969
6.266	2.000	2.100	1.970
6.317	2.000	2.100	1.971
6.366	2.000	2.100	1.970
6.416	2.000	2.100	1.970
6.467	2.000	2.100	1.970
6.517	2.000	2.100	1.971
6.566	2.000	2.100	1.970
6.617	2.000	2.100	1.969
6.667	2.000	2.100	1.971
6.717	2.000	2.100	1.972
6.767	2.000	2.100	1.970
6.817	2.000	2.100	1.971
6.867	2.000	2.100	1.969
6.917	2.000	2.100	1.970
6.968	2.000	2.100	1.970
7.018	2.000	2.100	1.956
7.068	2.000	2.100	1.970
7.119	2.000	2.100	1.970
7.169	2.000	2.100	1.970
7.219	2.000	2.100	1.970
7.268	2.000	2.100	1.970
7.319	2.000	2.100	1.967
7.369	2.000	2.100	1.971
7.418	2.000	2.100	1.970
7.469	2.000	2.100	1.969
7.519	2.000	2.100	1.970
7.569	2.000	2.100	1.967
7.619	2.000	2.100	1.972
7.669	2.000	2.100	1.969
7.719	2.000	2.100	1.969
7.769	2.000	2.100	1.970
7.819	2.000	2.100	1.970
7.869	2.000	2.100	1.970
7.920	2.000	2.100	1.970
7.970	2.000	2.100	1.969
8.020	2.000	2.100	1.970
8.070	2.000	2.100	1.970
8.121	2.000	2.100	1.966
8.171	2.000	2.100	1.969
8.221	2.000	2.100	1.969
8.271	2.000	2.100	1.965
8.322	2.000	2.100	1.971
8.372	2.000	2.100	1.970
8.422	2.000	2.100	1.969
8.472	2.000	2.100	1.970
8.523	2.000	2.100	1.969
8.572	2.000	2.100	1.969
8.622	2.000	2.100	1.969
8.671	2.000	2.100	1.971
8.721	2.000	2.100	1.969
8.772	2.000	2.100	1.969
8.822	2.000	2.100	1.968
8.872	2.000	2.100	1.969
8.922	2.000	2.100	1.968
8.972	2.000	2.100	1.968
9.022	2.000	2.100	1.966
9.072	2.000	2.100	1.969
9.122	2.000	2.100	1.970
9.172	2.000	2.100	1.969
9.221	2.000	2.100	1.969
9.271	2.000	2.100	1.968
9.321	2.000	2.100	1.968
9.371	2.000	2.100	1.969
9.421	2.000	2.100	1.970
9.471	2.000	2.100	1.969
9.521	2.000	2.100	1.970
9.571	2.000	2.100	1.970
9.621	2.000	2.100	1.967
9.671	2.000	2.100	1.968
9.722	2.000	2.100	1.967
9.772	2.000	2.100	1.968
9.821	2.000	2.100	1.964
9.872	2.000	2.100	1.969
9.922	2.000	2.100	1.968
9.972	2.000	2.100	1.970
10.022	2.000	2.100	1.964
10.072	2.000	2.100	1.970
10.121	2.000	2.100	1.969
10.171	2.000	2.100	1.967
10.221	2.000	2.100	1.970
10.271	2.000	2.100	1.968
10.322	2.000	2.100	1.969
10.371	2.000	2.100	1.968
10.421	2.000	2.100	1.968
10.472	2.000	2.100	1.968
10.522	2.000	2.100	1.969
10.571	2.000	2.100	1.970
10.622	2.214	2.100	1.966
10.671	3.000	2.100	1.968
10.720	4.143	2.100	1.968
10.770	4.500	2.100	1.966
10.819	4.571	2.100	1.967
10.870	4.857	2.100	1.968
10.919	5.143	2.100	1.968
10.968	5.214	2.100	1.968
11.019	5.286	2.100	1.966
11.068	5.286	2.100	1.964
11.118	5.286	2.100	1.958
11.168	5.286	2.100	1.961
11.218	5.286	2.100	1.958
11.268	5.286	2.100	1.959
11.318	5.714	2.100	1.965
11.367	6.000	2.100	1.966
11.417	6.143	2.100	1.967
11.467	6.214	2.100	1.967
11.517	6.214	2.100	1.969
11.567	6.500	2.100	1.964
11.616	6.857	2.100	1.967
11.665	7.071	2.100	1.966
11.715	7.214	2.100	1.966
11.764	7.429	2.100	1.967
11.815	7.571	2.100	1.964
11.865	7.714	2.100	1.967
11.914	7.714	2.100	1.965
11.965	7.714	2.100	1.967
12.015	7.714	2.100	1.967
12.064	7.714	2.100	1.966
12.115	7.714	2.100	1.967
12.165	7.714	2.100	1.968
12.215	7.714	2.100	1.968
12.265	7.714	2.100	1.968
12.315	7.714	2.100	1.967
12.365	7.714	2.100	1.970
12.415	7.714	2.100	1.968
12.465	7.714	2.100	1.968
12.515	7.714	2.100	1.968
12.566	7.714	2.100	1.968
12.616	7.714	2.100	1.969
12.666	7.714	2.100	1.969
12.716	7.714	2.100	1.968
12.767	7.714	2.100	1.965
12.817	7.714	2.100	1.970
12.866	7.714	2.100	1.966
12.916	7.714	2.100	1.967
12.966	8.214	2.100	1.966
13.016	8.286	2.100	1.967
13.066	8.429	2.100	1.965
13.116	8.500	2.100	1.966
13.166	8.714	2.100	1.967
13.216	8.786	2.100	1.965
13.266	9.143	2.100	1.967
13.315	9.357	2.100	1.965
13.366	9.571	2.100	1.964
13.416	9.643	2.100	1.966
13.466	9.643	2.100	1.966
13.516	9.643	2.100	1.968
13.566	9.643	2.100	1.970
13.616	9.643	2.100	1.970
13.666	9.643	2.100	1.972
13.717	9.643	2.100	1.974
13.767	9.643	2.100	1.974
13.816	9.500	2.100	1.975
13.867	9.000	2.100	1.978
13.917	7.857	2.100	1.980
13.966	7.286	2.100	1.984
14.017	7.000	2.100	1.985
14.067	6.857	2.100	1.989
14.117	6.857	2.100	1.989
14.167	6.571	2.100	1.990
14.217	6.214	2.100	1.992
14.267	6.071	2.100	1.988
14.317	6.000	2.100	1.988
14.368	6.000	2.100	1.988
14.418	6.000	2.100	1.985
14.468	6.000	2.100	1.981
14.518	6.214	2.100	1.977
14.568	6.929	2.100	1.975
14.617	7.500	2.100	1.973
14.668	7.571	2.100	1.970
14.718	7.571	2.100	1.971
14.767	7.571	2.100	1.968
14.818	7.571	2.100	1.967
14.868	7.571	2.100	1.968
14.917	7.786	2.100	1.966
14.968	7.786	2.100	1.966
15.018	7.929	2.100	1.967
15.068	7.929	2.100	1.966
15.118	8.000	2.100	1.967
15.168	8.000	2.100	1.966
15.218	8.143	2.100	1.968
15.268	8.143	2.100	1.959
15.319	8.143	2.100	1.971
15.368	8.143	2.100	1.971
15.418	8.214	2.100	1.969
15.468	8.500	2.100	1.971
15.518	8.500	2.100	1.968
15.568	8.500	2.100	1.969
15.619	8.500	2.100	1.973
15.669	8.500	2.100	1.973
15.719	8.500	2.100	1.972
15.769	8.500	2.100	1.973
15.819	8.500	2.100	1.973
15.869	8.500	2.100	1.975
15.918	8.643	2.100	1.972
15.969	8.786	2.100	1.972
16.019	8.857	2.100	1.973
16.069	8.857	2.100	1.975
16.119	8.857	2.100	1.975
16.169	9.000	2.100	1.974
16.219	9.071	2.100	1.973
16.270	9.071	2.100	1.974
16.320	9.071	2.100	1.976
16.369	9.143	2.100	1.976
16.419	9.214	2.100	1.975
16.470	9.286	2.100	1.972
16.519	9.286	2.100	1.977
16.570	9.286	2.100	1.979
16.620	9.286	2.100	1.981
16.669	9.286	2.100	1.982
16.720	9.286	2.100	1.982
16.770	9.286	2.100	1.984
16.820	9.214	2.100	1.984
16.869	9.214	2.100	1.988
16.920	9.214	2.100	1.990
16.970	9.214	2.100	1.988
17.019	9.143	2.100	1.990
17.070	9.071	2.100	1.989
17.119	9.000	2.100	1.991
17.174	9.000	2.100	1.978
17.224	9.000	2.100	1.989
17.274	9.000	2.100	1.988
17.324	9.000	2.100	1.988
17.374	8.714	2.100	1.995
17.424	8.714	2.100	1.996
17.474	8.714	2.100	2.003
17.523	8.714	2.100	2.001
17.573	8.714	2.100	2.001
17.624	8.714	2.100	1.998
17.674	8.714	2.100	2.002
17.723	8.429	2.100	2.000
17.774	8.286	2.100	2.000
17.823	8.286	2.100	2.000
17.873	8.286	2.100	2.003
17.923	8.286	2.100	2.003
17.973	8.286	2.100	2.003
18.023	8.286	2.100	2.000
18.074	8.286	2.100	1.999
18.124	8.286	2.100	2.003
18.173	8.357	2.100	2.002
18.223	8.357	2.100	2.002
18.273	8.357	2.100	2.000
18.323	8.357	2.100	2.001
18.373	8.357	2.100	2.003
18.423	8.429	2.100	2.001
18.473	8.500	2.100	1.997
18.523	8.500	2.100	2.003
18.572	8.500	2.100	2.002
18.622	8.500	2.100	2.003
18.672	8.500	2.100	2.002
18.722	8.500	2.100	2.003
18.772	8.500	2.100	2.003
18.823	8.500	2.100	2.001
18.873	8.500	2.100	2.004
18.922	8.500	2.100	2.002
18.973	8.500	2.100	2.002
19.023	8.500	2.100	2.003
19.072	8.500	2.100	2.003
19.123	8.500	2.100	2.004
19.172	8.500	2.100	2.002
19.222	8.500	2.100	2.003
19.272	8.500	2.100	2.003
19.322	8.500	2.100	2.003
19.372	8.500	2.100	2.004
19.423	8.500	2.100	2.002
19.473	8.500	2.100	2.004
19.522	8.500	2.100	2.003
19.573	8.500	2.100	2.003
19.623	8.500	2.100	2.004
19.673	8.500	2.100	2.002
19.723	8.500	2.100	2.003
19.773	8.500	2.100	2.004
19.823	8.500	2.100	2.004
19.873	8.500	2.100	2.003
19.923	8.500	2.100	2.003
19.973	8.500	2.100	2.004
20.023	8.500	2.100	2.005
20.073	8.500	2.100	2.005
20.123	8.500	2.100	2.006
20.173	8.500	2.100	2.003
20.223	8.500	2.100	2.004
20.273	8.500	2.100	2.005
20.322	8.500	2.100	2.004
20.372	8.500	2.100	2.007
20.422	8.500	2.100	2.007
20.472	8.500	2.100	2.006
20.523	8.500	2.100	2.006
20.573	8.500	2.100	2.007
20.623	8.500	2.100	2.004
20.674	8.500	2.100	2.003
20.724	8.500	2.100	2.006
20.773	8.500	2.100	2.004
20.823	8.500	2.100	2.003
20.874	8.500	2.100	2.003
20.924	8.500	2.100	2.006
20.974	8.500	2.100	2.006
21.024	8.500	2.100	2.006
21.074	8.500	2.100	2.006
21.124	8.500	2.100	2.005
21.175	8.500	2.100	2.005
21.225	8.500	2.100	2.006
21.274	8.500	2.100	2.004
21.325	8.500	2.100	2.006
21.375	8.500	2.100	2.003
21.424	8.500	2.100	2.006
21.474	8.500	2.100	2.005
21.525	8.500	2.100	2.005
21.575	8.500	2.100	2.006
21.625	8.500	2.100	2.005
21.676	8.500	2.100	2.005
21.726	8.500	2.100	2.005
21.776	8.500	2.100	2.005
21.826	8.500	2.100	2.005
21.877	8.500	2.100	2.006
21.926	8.500	2.100	2.004
21.976	8.500	2.100	2.005
22.027	8.500	2.100	2.006
22.077	8.500	2.100	2.006
22.127	8.500	2.100	2.004
22.177	8.500	2.100	2.005
22.228	8.500	2.100	2.005
22.278	8.500	2.100	2.005
22.328	8.500	2.100	2.004
22.378	8.500	2.100	2.006
22.428	8.500	2.100	2.006
22.478	8.500	2.100	2.005
22.528	8.500	2.100	2.005
22.578	8.500	2.100	2.007
22.628	8.500	2.100	2.005
22.678	8.500	2.100	2.006
22.729	8.500	2.100	2.007
22.778	8.500	2.100	2.005
22.828	8.500	2.100	2.007
22.879	8.500	2.100	2.007
22.929	8.500	2.100	2.007
22.978	8.500	2.100	2.003
23.029	8.500	2.100	2.006
23.079	8.500	2.100	1.984
23.129	8.500	2.100	2.004
23.180	8.500	2.100	1.997
23.230	8.500	2.100	2.003
23.280	8.500	2.100	1.995
23.330	8.500	2.100	2.002
23.381	8.500	2.100	2.003
23.431	8.500	2.100	1.993
23.480	8.500	2.100	1.998
23.531	8.500	2.100	2.004
23.581	8.500	2.100	2.001
23.631	8.500	2.100	2.005
23.681	8.500	2.100	2.008
23.732	8.500	2.100	2.004
23.782	8.500	2.100	2.005
23.831	8.500	2.100	1.995
23.881	8.500	2.100	2.004
23.930	8.500	2.100	2.004
23.980	8.500	2.100	2.007
24.030	8.500	2.100	2.005
24.079	8.500	2.100	2.007
24.129	8.500	2.100	2.005
24.179	8.500	2.100	2.006
24.228	8.500	2.100	2.003
24.278	8.500	2.100	2.004
24.328	8.500	2.100	2.003
24.379	8.500	2.100	2.005
24.429	8.500	2.100	2.006
24.478	8.500	2.100	2.005
24.528	8.500	2.100	2.006
24.579	8.500	2.100	2.002
24.628	8.500	2.100	2.006
24.678	8.500	2.100	2.003
24.728	8.500	2.100	2.007
24.777	8.500	2.100	2.005
24.828	8.500	2.100	2.005
24.878	8.500	2.100	2.006
24.927	8.500	2.100	2.003
24.978	8.500	2.100	2.007
25.028	8.500	2.100	2.004
25.078	8.500	2.100	2.005
25.128	8.500	2.100	2.004
25.178	8.500	2.100	2.004
25.228	8.500	2.100	2.005
25.278	8.500	2.100	2.006
25.329	8.500	2.100	2.007
25.379	8.500	2.100	2.005
25.429	8.500	2.100	2.005
25.479	8.500	2.100	2.007
25.530	8.500	2.100	2.007
25.580	8.500	2.100	2.008
25.630	8.500	2.100	1.996
25.680	8.500	2.100	2.005
25.730	8.500	2.100	2.005
25.779	8.500	2.100	2.006
25.830	8.500	2.100	2.007
25.880	8.500	2.100	2.007
25.930	8.500	2.100	2.006
25.980	8.500	2.100	1.999
26.030	8.500	2.100	2.006
26.080	8.500	2.100	2.006
26.130	8.500	2.100	2.008
26.181	8.500	2.100	2.007
26.231	8.500	2.100	1.980
26.281	8.500	2.100	2.008
26.332	8.500	2.100	2.003
26.382	8.500	2.100	2.008
26.431	8.500	2.100	2.008
26.482	8.500	2.100	2.007
26.532	8.500	2.100	2.008
26.582	8.500	2.100	2.003
26.632	8.500	2.100	2.008
26.682	8.500	2.100	2.006
26.732	8.500	2.100	2.008
26.781	8.500	2.100	2.007
26.831	8.500	2.100	2.008
26.881	8.500	2.100	2.007
26.931	8.500	2.100	2.008
26.982	8.500	2.100	2.007
27.032	8.500	2.100	2.008
27.082	8.500	2.100	2.008
27.133	8.500	2.100	2.007
27.183	8.500	2.100	2.006
27.232	8.500	2.100	1.988
27.283	8.500	2.100	2.008
27.333	8.500	2.100	2.008
27.383	8.500	2.100	2.007
27.433	8.500	2.100	2.005
27.484	8.500	2.100	2.008
27.533	8.500	2.100	2.007
27.583	8.500	2.100	2.007
27.634	8.500	2.100	2.008
27.683	8.500	2.100	2.007
27.733	8.500	2.100	2.004
27.784	8.500	2.100	2.005
27.834	8.500	2.100	2.006
27.884	8.500	2.100	2.005
27.934	8.500	2.100	2.001
27.984	8.500	2.100	2.007
28.034	8.500	2.100	2.006
28.084	8.500	2.100	2.002
28.135	8.500	2.100	1.995
28.185	8.500	2.100	2.008
28.234	8.500	2.100	2.001
28.285	8.500	2.100	2.000
28.335	8.500	2.100	1.996
28.385	8.500	2.100	1.995
28.435	8.500	2.100	2.002
28.486	8.500	2.100	2.005
28.536	8.500	2.100	2.010
28.586	8.500	2.100	2.009
28.637	8.500	2.100	2.009
28.687	8.500	2.100	1.988
28.737	8.500	2.100	2.009
28.787	8.500	2.100	2.008
28.838	8.500	2.100	2.006
28.888	8.500	2.100	2.008
28.937	8.500	2.100	2.009
28.987	8.500	2.100	2.010
29.037	8.500	2.100	2.009
29.087	8.500	2.100	2.010
29.138	8.500	2.100	2.010
29.188	8.500	2.100	2.010
29.237	8.500	2.100	2.010
29.288	8.500	2.100	2.010
29.338	8.500	2.100	2.010
29.387	8.500	2.100	2.007
29.438	8.500	2.100	2.010
29.488	8.500	2.100	2.008
29.537	8.500	2.100	2.009
29.588	8.500	2.100	2.009
29.638	8.500	2.100	2.009
29.687	8.500	2.100	2.007
29.738	8.500	2.100	2.010
29.788	8.500	2.100	2.003
29.837	8.500	2.100	2.007
29.887	8.500	2.100	1.996
29.937	8.500	2.100	1.997
29.987	8.500	2.100	2.004
30.037	8.500	2.100	1.997
30.087	8.500	2.100	1.988
30.137	8.500	2.100	2.003
30.187	8.500	2.100	2.006
30.238	8.500	2.100	1.997
30.287	8.500	2.100	2.005
30.337	8.500	2.100	2.004
30.388	8.500	2.100	1.998
30.437	8.500	2.100	1.996
30.487	8.500	2.100	1.998
30.538	8.500	2.100	2.004
30.587	8.500	2.100	2.001
30.637	8.500	2.100	1.993
30.688	8.500	2.100	2.000
30.738	8.500	2.100	2.003
30.787	8.500	2.100	1.996
30.838	8.500	2.100	1.995
30.888	8.500	2.100	2.002
30.938	8.500	2.100	2.006
30.988	8.500	2.100	2.007
31.039	8.500	2.100	1.999
31.088	8.500	2.100	2.002
31.138	8.500	2.100	2.003
31.188	8.500	2.100	2.009
31.237	8.500	2.100	2.011
31.288	8.500	2.100	2.006
31.338	8.500	2.100	2.010
31.387	8.500	2.100	2.009
31.438	8.500	2.100	2.005
31.488	8.500	2.100	2.011
31.537	8.500	2.100	2.006
31.588	8.500	2.100	2.009
31.638	8.500	2.100	2.008
31.688	8.500	2.100	2.003
31.738	8.500	2.100	1.999
31.789	8.500	2.100	2.007
31.838	8.500	2.100	2.008
31.888	8.500	2.100	2.008
31.938	8.500	2.100	2.009
31.987	8.500	2.100	2.007
32.037	8.500	2.100	2.004
32.088	8.500	2.100	2.010
32.138	8.500	2.100	2.007
32.187	8.500	2.100	2.010
32.237	8.500	2.100	2.013
32.287	8.500	2.100	2.008
32.337	8.500	2.100	2.009
32.388	8.500	2.100	2.010
32.438	8.500	2.100	2.009
32.488	8.500	2.100	2.011
32.538	8.500	2.100	2.006
32.589	8.500	2.100	2.007
32.639	8.500	2.100	2.001
32.689	8.500	2.100	1.997
32.740	8.500	2.100	1.994
32.790	8.500	2.100	2.000
32.840	8.500	2.100	2.007
32.890	8.500	2.100	2.009
32.941	8.500	2.100	2.011
32.991	8.500	2.100	2.013
33.041	8.500	2.100	2.009
33.091	8.500	2.100	2.013
33.141	8.500	2.100	2.013
33.191	8.500	2.100	2.013
33.241	8.500	2.100	2.014
33.292	8.500	2.100	2.011
33.341	8.500	2.100	2.011
33.391	8.500	2.100	2.012
33.442	8.500	2.100	2.009
33.491	8.500	2.100	2.012
33.541	8.500	2.100	2.005
33.591	8.500	2.100	1.999
33.640	8.500	2.100	1.997
33.691	8.500	2.100	2.000
33.741	8.500	2.100	2.008
33.790	8.500	2.100	2.001
33.841	8.500	2.100	2.005
33.891	8.500	2.100	1.998
33.941	8.500	2.100	2.005
33.991	8.500	2.100	2.003
34.041	8.500	2.100	1.997
34.091	8.500	2.100	2.002
34.141	8.500	2.100	2.009
34.191	8.500	2.100	2.003
34.241	8.500	2.100	1.997
34.291	8.500	2.100	2.002
34.342	8.500	2.100	2.009
34.392	8.500	2.100	1.999
34.441	8.500	2.100	2.008
34.492	8.500	2.100	2.003
34.542	8.500	2.100	2.009
34.592	8.500	2.100	2.011
34.642	8.500	2.100	2.014
34.693	8.500	2.100	2.013
34.743	8.500	2.100	2.015
34.793	8.500	2.100	2.013
34.843	8.500	2.100	2.013
34.894	8.500	2.100	2.016
34.944	8.500	2.100	2.016
34.994	8.500	2.100	2.014
35.045	8.500	2.100	2.014
35.095	8.500	2.100	2.015
35.145	8.500	2.100	2.014
35.196	8.500	2.100	2.012
35.246	8.500	2.100	2.014
35.296	8.500	2.100	2.015
35.346	8.500	2.100	2.015
35.396	8.500	2.100	2.014
35.446	8.500	2.100	2.014
35.496	8.500	2.100	2.015
35.546	8.500	2.100	2.011
35.596	8.500	2.100	2.014
35.645	8.500	2.100	2.015
35.695	8.500	2.100	2.015
35.745	8.500	2.100	2.015
35.795	8.500	2.100	2.012
35.846	8.500	2.100	2.016
35.895	8.500	2.100	2.014
35.945	8.500	2.100	2.015
35.996	8.500	2.100	2.014
36.046	8.500	2.100	2.016
36.095	8.500	2.100	2.014
36.146	8.500	2.100	2.015
36.196	8.500	2.100	2.015
36.245	8.500	2.100	2.016
36.295	8.500	2.100	2.015
36.345	8.500	2.100	2.016
36.395	8.500	2.100	2.014
36.445	8.500	2.100	2.016
36.495	8.500	2.100	2.015
36.545	8.500	2.100	2.013
36.595	8.500	2.100	2.018
36.646	8.500	2.100	2.015
36.695	8.500	2.100	2.016
36.745	8.500	2.100	2.017
36.796	8.500	2.100	2.018
36.845	8.500	2.100	2.014
36.895	8.500	2.100	2.014
36.946	8.500	2.100	2.015
36.996	8.500	2.100	2.016
37.045	8.500	2.100	2.017
37.096	8.500	2.100	2.017
37.146	8.500	2.100	2.017
37.196	8.500	2.100	2.016
37.246	8.500	2.100	2.017
37.296	8.500	2.100	2.017
37.346	8.500	2.100	2.017
37.396	8.500	2.100	2.018
37.446	8.500	2.100	2.018
37.496	8.500	2.100	2.018
37.546	8.500	2.100	2.016
37.597	8.500	2.100	2.018
37.647	8.500	2.100	2.018
37.697	8.500	2.100	2.015
37.748	8.500	2.100	2.016
37.798	8.500	2.100	2.018
37.847	8.500	2.100	2.012
37.898	8.500	2.100	2.015
37.948	8.500	2.100	2.018
37.997	8.500	2.100	2.017
38.047	8.500	2.100	2.017
38.098	8.500	2.100	2.011
38.147	8.357	2.100	2.016
38.197	8.357	2.100	2.018
38.248	8.357	2.100	2.018
38.298	8.357	2.100	2.018
38.348	8.357	2.100	2.015
38.399	8.357	2.100	2.017
38.449	8.357	2.100	2.018
38.498	8.357	2.100	2.016
38.549	8.357	2.100	2.017
38.599	8.357	2.100	2.018
38.648	8.357	2.100	2.018
38.699	8.357	2.100	2.017
