Time (s)	Motor Command (V)	Desired Position  (V)	Actual Position (V)
0.003	2.000	2.100	1.969
0.055	2.000	2.100	1.969
0.104	2.000	2.100	1.969
0.155	2.000	2.100	1.969
0.204	2.000	2.100	1.967
0.254	2.000	2.100	1.971
0.303	2.000	2.100	1.969
0.352	2.000	2.100	1.969
0.403	2.000	2.100	1.971
0.453	2.000	2.100	1.969
0.503	2.000	2.100	1.971
0.553	2.000	2.100	1.969
0.603	2.000	2.100	1.971
0.653	2.000	2.100	1.967
0.703	2.000	2.100	1.969
0.753	2.000	2.100	1.970
0.803	2.000	2.100	1.968
0.853	2.000	2.100	1.972
0.903	2.000	2.100	1.970
0.953	2.000	2.100	1.967
1.003	2.000	2.100	1.969
1.053	2.000	2.100	1.964
1.102	2.000	2.100	1.965
1.153	2.000	2.100	1.969
1.203	2.000	2.100	1.962
1.252	2.000	2.100	1.964
1.303	2.000	2.100	1.967
1.353	2.000	2.100	1.962
1.402	2.000	2.100	1.970
1.452	2.000	2.100	1.967
1.502	2.000	2.100	1.965
1.552	2.000	2.100	1.970
1.602	2.000	2.100	1.963
1.652	2.000	2.100	1.967
1.702	2.000	2.100	1.968
1.752	2.000	2.100	1.969
1.802	2.000	2.100	1.969
1.852	2.000	2.100	1.968
1.901	2.000	2.100	1.969
1.951	2.000	2.100	1.968
2.001	2.000	2.100	1.969
2.051	2.000	2.100	1.969
2.100	2.100	2.100	1.967
2.150	2.100	2.100	1.968
2.201	2.100	2.100	1.968
2.251	2.100	2.100	1.968
2.300	2.100	2.100	1.967
2.351	2.100	2.100	1.969
2.400	2.100	2.100	1.967
2.450	2.100	2.100	1.968
2.501	2.100	2.100	1.969
2.551	2.100	2.100	1.965
2.601	2.300	2.100	1.961
2.651	2.400	2.100	1.967
2.701	2.600	2.100	1.967
2.750	2.700	2.100	1.968
2.801	2.900	2.100	1.968
2.850	3.000	2.100	1.967
2.899	3.200	2.100	1.968
2.949	3.300	2.100	1.970
2.999	3.500	2.100	1.972
3.049	3.600	2.100	1.967
3.098	3.800	2.100	1.967
3.147	3.900	2.100	1.968
3.197	4.100	2.100	1.968
3.246	4.200	2.100	1.968
3.296	4.400	2.100	1.969
3.346	4.500	2.100	1.968
3.396	4.700	2.100	1.968
3.447	4.800	2.100	1.969
3.496	5.000	2.100	1.970
3.546	5.100	2.100	1.968
3.597	5.300	2.100	1.972
3.647	5.500	2.100	1.959
3.696	5.600	2.100	1.968
3.747	5.700	2.100	1.969
3.796	5.900	2.100	1.967
3.845	6.000	2.100	1.968
3.896	6.200	2.100	1.968
3.946	6.400	2.100	1.967
3.995	6.500	2.100	1.969
4.046	6.500	2.100	1.968
4.096	6.500	2.100	1.968
4.145	6.500	2.100	1.968
4.195	6.500	2.100	1.968
4.244	6.500	2.100	1.967
4.294	6.500	2.100	1.968
4.344	6.500	2.100	1.966
4.394	6.500	2.100	1.966
4.444	6.500	2.100	1.966
4.494	6.500	2.100	1.968
4.544	6.500	2.100	1.967
4.594	6.500	2.100	1.961
4.644	6.500	2.100	1.967
4.694	6.600	2.100	1.967
4.744	6.600	2.100	1.966
4.795	6.600	2.100	1.966
4.844	6.600	2.100	1.965
4.894	6.600	2.100	1.969
4.943	6.600	2.100	1.967
4.992	6.600	2.100	1.966
5.043	6.600	2.100	1.968
5.093	6.600	2.100	1.964
5.142	6.600	2.100	1.963
5.193	6.800	2.100	1.968
5.243	6.900	2.100	1.966
5.292	7.000	2.100	1.968
5.342	7.200	2.100	1.967
5.392	7.400	2.100	1.966
5.441	7.500	2.100	1.967
5.491	7.700	2.100	1.969
5.541	7.800	2.100	1.967
5.591	8.000	2.100	1.952
5.641	8.100	2.100	1.968
5.691	8.200	2.100	1.967
5.741	8.400	2.100	1.964
5.792	8.600	2.100	1.963
5.841	8.700	2.100	1.963
5.891	8.900	2.100	1.967
5.942	9.000	2.100	1.968
5.992	9.200	2.100	1.963
6.041	9.200	2.100	1.967
6.092	9.200	2.100	1.967
6.141	9.200	2.100	1.968
6.191	9.200	2.100	1.971
6.242	9.200	2.100	1.973
6.292	9.200	2.100	1.973
6.341	9.200	2.100	1.970
6.391	9.200	2.100	1.978
6.440	9.200	2.100	1.981
6.490	9.200	2.100	1.976
6.541	9.100	2.100	1.988
6.590	9.100	2.100	1.992
6.640	9.100	2.100	1.997
6.690	9.100	2.100	2.001
6.740	9.100	2.100	2.005
6.790	9.100	2.100	2.011
6.840	9.100	2.100	2.010
6.889	9.100	2.100	2.012
6.940	9.100	2.100	2.013
6.990	9.100	2.100	2.016
7.039	9.100	2.100	2.014
7.090	9.100	2.100	2.014
7.140	9.100	2.100	2.015
7.189	9.100	2.100	2.015
7.240	9.100	2.100	2.014
7.290	9.100	2.100	2.015
7.339	9.100	2.100	2.014
7.390	9.100	2.100	2.014
7.440	9.100	2.100	2.015
7.489	9.100	2.100	2.015
7.539	9.100	2.100	2.014
7.589	9.100	2.100	2.014
7.639	9.100	2.100	2.016
7.689	9.100	2.100	2.015
7.739	9.100	2.100	2.012
7.788	9.100	2.100	2.014
7.839	9.100	2.100	2.015
7.888	9.100	2.100	2.016
7.938	9.100	2.100	2.014
7.989	9.100	2.100	2.016
8.039	9.100	2.100	2.016
8.088	9.100	2.100	2.015
8.139	9.100	2.100	2.016
8.189	9.100	2.100	2.015
8.238	9.100	2.100	2.014
8.289	9.100	2.100	2.016
8.339	9.100	2.100	2.016
8.389	9.100	2.100	2.014
8.439	9.100	2.100	2.016
8.489	9.100	2.100	2.017
8.539	9.100	2.100	2.016
8.589	9.100	2.100	2.014
8.640	9.100	2.100	2.017
8.689	9.100	2.100	2.017
8.739	9.100	2.100	2.015
8.790	9.100	2.100	2.018
8.839	9.100	2.100	2.016
8.889	9.100	2.100	2.016
8.940	9.100	2.100	2.018
8.989	9.100	2.100	2.017
9.038	9.100	2.100	2.016
9.088	9.100	2.100	2.019
9.137	9.100	2.100	2.017
9.188	9.100	2.100	2.018
9.237	9.100	2.100	2.016
9.286	9.100	2.100	2.018
9.337	9.100	2.100	2.018
9.386	9.100	2.100	2.018
9.436	9.100	2.100	2.018
9.486	9.100	2.100	2.019
9.535	9.100	2.100	2.017
9.585	9.100	2.100	2.018
9.634	9.100	2.100	2.016
9.684	9.100	2.100	2.016
9.734	9.100	2.100	2.019
9.783	9.100	2.100	2.017
9.834	9.100	2.100	2.017
9.884	9.100	2.100	2.018
9.934	9.100	2.100	2.017
9.983	9.100	2.100	2.021
10.034	9.100	2.100	2.018
10.084	9.100	2.100	2.020
10.134	9.100	2.100	2.018
10.184	9.100	2.100	2.020
10.233	9.100	2.100	2.020
10.283	9.100	2.100	2.020
10.333	9.100	2.100	2.024
10.382	9.100	2.100	2.021
10.432	9.100	2.100	2.024
10.481	9.100	2.100	2.023
10.531	9.100	2.100	2.026
10.580	9.100	2.100	2.025
10.630	9.100	2.100	2.025
10.680	9.100	2.100	2.022
10.729	9.100	2.100	2.024
10.779	9.100	2.100	2.018
10.829	9.100	2.100	2.020
10.878	9.100	2.100	2.024
10.928	9.100	2.100	2.024
10.977	9.100	2.100	2.023
11.027	9.100	2.100	2.024
11.077	9.100	2.100	2.023
11.126	9.100	2.100	2.023
11.177	9.100	2.100	2.024
11.226	9.100	2.100	2.023
11.275	9.100	2.100	2.020
11.326	9.100	2.100	2.025
11.376	9.100	2.100	2.023
11.425	9.100	2.100	2.024
11.476	9.100	2.100	2.024
11.526	9.100	2.100	2.024
11.575	9.100	2.100	2.024
11.626	9.100	2.100	2.023
11.676	9.100	2.100	2.026
11.726	9.100	2.100	2.022
11.776	9.100	2.100	2.024
11.826	9.100	2.100	2.027
11.876	9.100	2.100	2.025
11.926	9.100	2.100	2.026
11.976	9.100	2.100	2.026
12.026	9.100	2.100	2.026
12.076	9.100	2.100	2.027
12.127	9.100	2.100	2.028
12.176	9.100	2.100	2.027
12.226	9.100	2.100	2.027
12.277	9.100	2.100	2.027
12.326	9.100	2.100	2.026
12.375	9.100	2.100	2.027
12.425	9.100	2.100	2.027
12.475	9.100	2.100	2.027
12.525	9.100	2.100	2.027
12.575	9.100	2.100	2.028
12.625	9.100	2.100	2.026
12.675	9.100	2.100	2.025
12.726	9.100	2.100	2.028
12.775	9.100	2.100	2.028
12.825	9.100	2.100	2.024
12.876	9.100	2.100	2.029
12.925	9.100	2.100	2.027
12.975	9.100	2.100	2.028
13.026	9.100	2.100	2.030
13.075	9.100	2.100	2.033
13.124	9.100	2.100	2.029
13.174	9.100	2.100	2.030
13.224	9.100	2.100	2.028
13.275	9.100	2.100	2.028
13.325	9.100	2.100	2.030
13.374	9.100	2.100	2.027
13.424	9.100	2.100	2.030
13.473	9.100	2.100	2.031
13.523	9.100	2.100	2.031
13.573	9.100	2.100	2.031
13.622	9.100	2.100	2.030
13.672	9.100	2.100	2.032
13.722	9.100	2.100	2.032
13.771	9.100	2.100	2.028
13.822	9.100	2.100	2.030
13.872	9.100	2.100	2.031
13.922	9.100	2.100	2.030
13.972	9.100	2.100	2.032
14.022	9.100	2.100	2.033
14.072	9.100	2.100	2.031
14.122	9.100	2.100	2.033
14.172	9.100	2.100	2.033
14.221	9.100	2.100	2.031
14.272	9.100	2.100	2.033
14.321	9.100	2.100	2.031
14.370	9.100	2.100	2.031
14.421	9.100	2.100	2.031
14.470	9.100	2.100	2.032
14.520	9.100	2.100	2.033
14.570	9.100	2.100	2.033
14.619	9.100	2.100	2.031
14.670	9.100	2.100	2.033
14.720	9.100	2.100	2.033
14.769	9.100	2.100	2.032
14.819	9.100	2.100	2.034
14.868	9.100	2.100	2.033
14.918	9.100	2.100	2.031
14.968	9.100	2.100	2.033
15.018	9.100	2.100	2.034
15.068	9.100	2.100	2.032
15.118	9.100	2.100	2.039
15.167	9.100	2.100	2.032
15.217	9.100	2.100	2.031
15.267	9.100	2.100	2.031
15.317	9.100	2.100	2.022
15.367	9.100	2.100	2.028
15.416	9.100	2.100	2.030
15.466	9.100	2.100	2.029
15.517	9.100	2.100	2.033
15.566	9.100	2.100	2.032
15.616	9.100	2.100	2.031
15.667	9.100	2.100	2.023
15.717	9.100	2.100	2.033
15.766	9.100	2.100	2.031
15.817	9.100	2.100	2.033
15.866	9.100	2.100	2.032
15.915	9.100	2.100	2.034
15.965	9.100	2.100	2.035
16.014	9.100	2.100	2.032
16.065	9.000	2.100	2.034
16.115	9.000	2.100	2.035
16.165	9.000	2.100	2.034
16.215	9.000	2.100	2.034
16.265	9.000	2.100	2.034
16.314	9.000	2.100	2.031
16.364	9.000	2.100	2.034
16.414	9.000	2.100	2.032
16.464	9.000	2.100	2.035
16.514	9.000	2.100	2.034
16.564	9.000	2.100	2.033
16.614	9.000	2.100	2.034
16.664	9.000	2.100	2.034
16.715	9.000	2.100	2.034
16.765	9.000	2.100	2.034
16.814	9.000	2.100	2.034
16.865	9.000	2.100	2.034
16.915	9.000	2.100	2.034
16.964	9.000	2.100	2.035
17.015	9.000	2.100	2.037
17.065	9.000	2.100	2.036
17.114	9.000	2.100	2.037
17.165	9.000	2.100	2.037
17.215	9.000	2.100	2.037
17.265	9.000	2.100	2.038
17.315	9.000	2.100	2.037
17.365	9.000	2.100	2.037
17.415	9.000	2.100	2.036
17.465	9.000	2.100	2.037
17.515	9.000	2.100	2.037
17.564	9.000	2.100	2.037
17.614	9.000	2.100	2.037
17.663	9.000	2.100	2.019
17.713	9.000	2.100	2.036
17.764	9.000	2.100	2.037
17.813	9.000	2.100	2.038
17.863	9.000	2.100	2.038
17.913	9.000	2.100	2.040
17.962	9.000	2.100	2.037
18.013	9.000	2.100	2.038
18.062	9.000	2.100	2.038
18.111	9.000	2.100	2.039
18.161	9.000	2.100	2.028
18.210	9.000	2.100	2.039
18.261	9.000	2.100	2.038
18.311	9.000	2.100	2.040
18.360	9.000	2.100	2.039
18.410	9.000	2.100	2.040
18.460	9.000	2.100	2.038
18.509	9.000	2.100	2.039
18.560	9.000	2.100	2.039
18.609	9.000	2.100	2.038
18.659	9.000	2.100	2.038
18.709	9.000	2.100	2.040
18.758	9.000	2.100	2.038
18.808	9.000	2.100	2.040
18.858	9.000	2.100	2.040
18.907	9.000	2.100	2.037
18.958	9.000	2.100	2.039
19.007	9.000	2.100	2.040
19.057	9.000	2.100	2.038
19.108	9.000	2.100	2.040
19.157	9.000	2.100	2.040
19.207	9.000	2.100	2.038
19.258	9.000	2.100	2.033
19.308	9.000	2.100	2.041
19.357	9.000	2.100	2.039
19.408	9.000	2.100	2.040
19.458	9.000	2.100	2.040
19.507	9.000	2.100	2.038
19.558	9.000	2.100	2.039
19.608	9.000	2.100	2.040
19.658	8.900	2.100	2.040
19.708	8.900	2.100	2.044
19.758	8.900	2.100	2.043
19.807	8.900	2.100	2.042
19.857	8.900	2.100	2.045
19.907	8.900	2.100	2.045
19.957	8.900	2.100	2.042
20.007	8.900	2.100	2.043
20.057	8.900	2.100	2.045
20.107	8.900	2.100	2.043
20.157	8.900	2.100	2.042
20.208	8.900	2.100	2.043
20.258	8.900	2.100	2.044
20.307	8.900	2.100	2.042
20.358	8.900	2.100	2.036
20.408	8.900	2.100	2.044
20.458	8.900	2.100	2.043
20.509	8.900	2.100	2.043
20.559	8.900	2.100	2.044
20.609	8.900	2.100	2.043
20.659	8.900	2.100	2.042
20.710	8.900	2.100	2.043
20.759	8.900	2.100	2.043
20.809	8.900	2.100	2.044
20.859	8.900	2.100	2.045
20.908	8.900	2.100	2.044
20.958	8.900	2.100	2.046
21.007	8.900	2.100	2.043
21.057	8.900	2.100	2.044
21.108	8.900	2.100	2.045
21.157	8.900	2.100	2.037
21.206	8.900	2.100	2.034
21.256	8.900	2.100	2.046
21.305	8.900	2.100	2.043
21.356	8.900	2.100	2.045
21.405	8.900	2.100	2.043
21.454	8.900	2.100	2.043
21.504	8.900	2.100	2.045
21.553	8.900	2.100	2.038
21.604	8.900	2.100	2.043
21.654	8.900	2.100	2.046
21.703	8.900	2.100	2.044
21.754	8.900	2.100	2.044
21.803	8.900	2.100	2.046
21.853	8.900	2.100	2.042
21.903	8.900	2.100	2.046
21.953	8.900	2.100	2.046
22.003	8.900	2.100	2.043
22.053	8.900	2.100	2.044
22.103	8.900	2.100	2.046
22.153	8.900	2.100	2.044
22.203	8.900	2.100	2.045
22.253	8.900	2.100	2.046
22.303	8.900	2.100	2.042
22.353	8.900	2.100	2.043
22.403	8.900	2.100	2.045
22.452	8.900	2.100	2.041
22.503	8.900	2.100	2.043
22.552	8.900	2.100	2.045
22.601	8.900	2.100	2.045
22.651	8.900	2.100	2.046
22.700	8.900	2.100	2.045
22.751	8.900	2.100	2.045
22.800	8.900	2.100	2.045
22.849	8.900	2.100	2.045
22.900	8.900	2.100	2.047
22.949	8.900	2.100	2.045
22.999	8.900	2.100	2.046
23.049	8.900	2.100	2.047
23.098	8.900	2.100	2.045
23.149	8.900	2.100	2.046
23.199	8.900	2.100	2.048
23.248	8.900	2.100	2.048
23.298	8.900	2.100	2.047
23.348	8.900	2.100	2.047
23.398	8.900	2.100	2.043
23.448	8.900	2.100	2.045
23.498	8.900	2.100	2.045
23.548	8.900	2.100	2.048
23.598	8.900	2.100	2.044
23.648	8.900	2.100	2.048
23.698	8.900	2.100	2.046
23.748	8.900	2.100	2.047
23.798	8.900	2.100	2.050
23.847	8.900	2.100	2.048
23.898	8.900	2.100	2.049
23.947	8.900	2.100	2.047
23.996	8.900	2.100	2.046
24.046	8.900	2.100	2.050
24.095	8.900	2.100	2.047
24.146	8.900	2.100	2.048
24.196	8.900	2.100	2.051
24.245	8.900	2.100	2.049
24.296	8.900	2.100	2.047
24.346	8.900	2.100	2.050
24.395	8.900	2.100	2.049
24.446	8.900	2.100	2.041
24.496	8.900	2.100	2.044
24.545	8.900	2.100	2.050
24.595	8.900	2.100	2.047
24.645	8.900	2.100	2.049
24.694	8.900	2.100	2.048
24.744	8.900	2.100	2.046
24.793	8.900	2.100	2.046
24.843	8.900	2.100	2.044
24.894	8.900	2.100	2.049
24.944	8.900	2.100	2.045
24.993	8.900	2.100	2.041
25.043	8.900	2.100	2.045
25.093	8.900	2.100	2.041
25.143	8.900	2.100	2.048
25.194	8.900	2.100	2.049
25.244	8.900	2.100	2.053
25.294	8.900	2.100	2.051
25.345	8.900	2.100	2.048
25.395	8.900	2.100	2.051
25.444	8.900	2.100	2.042
25.494	8.900	2.100	2.044
25.544	8.900	2.100	2.048
25.594	8.900	2.100	2.046
25.644	8.900	2.100	2.040
25.694	8.900	2.100	2.047
25.744	8.900	2.100	2.049
25.794	8.900	2.100	2.053
25.843	8.900	2.100	2.053
25.893	8.900	2.100	2.049
25.943	8.900	2.100	2.054
25.993	8.900	2.100	2.053
26.043	8.900	2.100	2.051
26.094	8.900	2.100	2.054
26.143	8.900	2.100	2.053
26.193	8.900	2.100	2.053
26.244	8.900	2.100	2.051
26.294	8.900	2.100	2.055
26.343	8.900	2.100	2.037
26.394	8.900	2.100	2.054
26.444	8.900	2.100	2.057
26.493	8.900	2.100	2.056
26.544	8.900	2.100	2.054
26.594	8.900	2.100	2.054
26.644	8.900	2.100	2.057
26.694	8.900	2.100	2.055
26.744	8.900	2.100	2.060
26.794	8.900	2.100	2.059
26.844	8.900	2.100	2.058
26.895	8.900	2.100	2.053
26.945	8.900	2.100	2.061
26.994	8.900	2.100	2.059
27.044	8.900	2.100	2.061
27.093	8.900	2.100	2.060
27.143	8.900	2.100	2.059
27.194	8.900	2.100	2.060
27.243	8.900	2.100	2.061
27.293	8.900	2.100	2.060
27.344	8.900	2.100	2.061
27.394	8.900	2.100	2.060
27.443	8.900	2.100	2.060
27.494	8.900	2.100	2.061
27.544	8.900	2.100	2.063
27.593	8.900	2.100	2.058
27.644	8.900	2.100	2.063
27.693	8.900	2.100	2.064
27.743	8.900	2.100	2.061
27.794	8.900	2.100	2.064
27.845	8.900	2.100	2.065
27.895	8.900	2.100	2.063
27.944	8.900	2.100	2.063
27.995	8.900	2.100	2.061
28.044	8.900	2.100	2.062
28.094	8.900	2.100	2.063
28.144	8.900	2.100	2.065
28.193	8.900	2.100	2.063
28.244	8.900	2.100	2.061
28.294	8.900	2.100	2.065
28.343	8.900	2.100	2.063
28.394	8.900	2.100	2.064
28.444	8.900	2.100	2.065
28.493	8.900	2.100	2.067
28.543	8.900	2.100	2.066
28.593	8.900	2.100	2.059
28.643	8.900	2.100	2.066
28.693	8.900	2.100	2.066
28.743	8.900	2.100	2.067
28.793	8.900	2.100	2.065
28.843	8.900	2.100	2.064
28.894	8.900	2.100	2.064
28.944	8.900	2.100	2.065
28.993	8.900	2.100	2.064
29.044	8.900	2.100	2.067
29.094	8.900	2.100	2.067
29.143	8.900	2.100	2.065
29.194	8.900	2.100	2.067
29.244	8.900	2.100	2.070
29.295	8.900	2.100	2.071
29.345	8.900	2.100	2.071
29.395	8.900	2.100	2.049
29.445	8.900	2.100	2.073
29.495	8.900	2.100	2.073
29.545	8.900	2.100	2.074
29.594	8.900	2.100	2.069
29.643	8.900	2.100	2.077
29.694	8.900	2.100	2.079
29.744	8.900	2.100	2.079
29.794	8.900	2.100	2.079
29.845	8.900	2.100	2.079
29.894	8.900	2.100	2.081
29.944	8.900	2.100	2.083
29.995	8.900	2.100	2.084
30.045	8.900	2.100	2.085
30.094	8.900	2.100	2.084
30.145	8.900	2.100	2.084
30.195	8.900	2.100	2.086
30.245	8.900	2.100	2.085
30.294	8.900	2.100	2.086
30.345	8.900	2.100	2.086
30.395	8.900	2.100	2.086
30.444	8.900	2.100	2.087
30.495	8.900	2.100	2.086
30.545	8.900	2.100	2.072
30.595	8.900	2.100	2.081
30.645	8.900	2.100	2.087
30.695	8.900	2.100	2.085
30.744	8.900	2.100	2.085
30.794	8.900	2.100	2.087
30.844	8.900	2.100	2.083
30.894	8.900	2.100	2.086
30.945	8.900	2.100	2.087
30.994	8.900	2.100	2.083
31.044	8.900	2.100	2.085
31.094	8.900	2.100	2.088
31.144	8.900	2.100	2.086
31.194	8.900	2.100	2.088
31.244	8.900	2.100	2.088
31.293	8.900	2.100	2.086
31.343	8.900	2.100	2.088
31.393	8.900	2.100	2.088
31.443	8.900	2.100	2.090
31.493	8.900	2.100	2.088
31.543	8.900	2.100	2.089
31.593	8.900	2.100	2.084
31.643	8.900	2.100	2.090
31.693	8.900	2.100	2.088
31.742	8.900	2.100	2.088
31.793	8.900	2.100	2.088
31.842	8.900	2.100	2.089
31.892	8.900	2.100	2.088
31.943	8.900	2.100	2.090
31.992	8.900	2.100	2.089
32.041	8.900	2.100	2.088
32.091	8.900	2.100	2.089
32.140	8.900	2.100	2.080
32.191	8.900	2.100	2.089
32.241	8.900	2.100	2.090
32.290	8.900	2.100	2.090
32.340	8.900	2.100	2.090
32.389	8.900	2.100	2.091
32.439	8.900	2.100	2.090
32.488	8.900	2.100	2.089
32.537	8.900	2.100	2.090
32.588	8.900	2.100	2.089
32.637	8.900	2.100	2.088
32.687	8.900	2.100	2.090
32.737	8.900	2.100	2.091
32.786	8.900	2.100	2.093
32.836	8.900	2.100	2.090
32.885	8.900	2.100	2.079
32.935	8.900	2.100	2.087
32.985	8.900	2.100	2.080
33.034	8.900	2.100	2.088
33.084	8.900	2.100	2.090
33.134	8.900	2.100	2.087
33.184	8.900	2.100	2.089
33.234	8.900	2.100	2.090
33.284	8.900	2.100	2.091
33.334	8.900	2.100	2.088
33.384	8.900	2.100	2.088
33.434	8.900	2.100	2.092
33.484	8.900	2.100	2.089
33.535	8.900	2.100	2.084
33.585	8.900	2.100	2.092
33.634	8.900	2.100	2.090
33.684	8.900	2.100	2.089
33.735	8.900	2.100	2.090
33.784	8.900	2.100	2.088
33.834	8.900	2.100	2.089
33.884	8.900	2.100	2.090
33.933	8.900	2.100	2.088
33.984	8.900	2.100	2.088
34.034	8.900	2.100	2.090
34.084	8.900	2.100	2.088
34.133	8.900	2.100	2.092
34.183	8.900	2.100	2.090
34.233	8.900	2.100	2.089
34.284	8.900	2.100	2.091
34.333	8.900	2.100	2.090
34.383	8.900	2.100	2.084
34.434	8.900	2.100	2.090
34.484	8.900	2.100	2.091
34.533	8.900	2.100	2.089
34.584	8.900	2.100	2.088
34.634	8.900	2.100	2.091
34.683	8.900	2.100	2.089
34.734	8.900	2.100	2.088
34.784	8.900	2.100	2.091
34.833	8.900	2.100	2.089
34.883	8.900	2.100	2.091
34.933	8.900	2.100	2.091
34.983	8.900	2.100	2.091
35.033	8.900	2.100	2.090
35.083	8.900	2.100	2.090
35.133	8.900	2.100	2.090
35.183	8.900	2.100	2.088
35.234	8.900	2.020	2.091
35.283	8.900	2.020	2.091
35.333	8.900	2.020	2.088
35.384	8.900	2.020	2.091
35.433	8.900	2.020	2.090
35.483	8.900	2.020	2.088
35.534	8.900	2.020	2.091
35.583	8.900	2.020	2.091
35.633	8.900	2.020	2.090
35.684	8.900	2.020	2.089
35.734	8.900	2.020	2.086
35.783	8.900	2.020	2.087
35.834	8.900	2.020	2.087
35.884	8.900	2.020	2.090
35.934	8.900	2.020	2.088
35.984	8.900	2.020	2.089
36.034	8.900	2.020	2.066
36.084	8.900	2.020	2.088
36.133	8.900	2.020	2.089
36.184	8.900	2.020	2.093
36.233	8.900	2.020	2.091
36.283	8.900	2.020	2.091
36.333	8.900	2.020	2.088
36.382	8.900	2.020	2.085
36.433	8.900	2.020	2.091
36.482	8.900	2.020	2.092
36.532	8.900	2.020	2.087
36.583	8.900	2.020	2.090
36.633	8.900	2.020	2.092
36.683	8.900	2.020	2.089
36.733	8.900	2.020	2.091
36.783	8.900	2.020	2.090
36.833	8.900	2.020	2.089
36.883	8.900	2.020	2.090
36.934	8.900	2.020	2.091
36.983	8.900	2.020	2.090
37.033	8.900	2.020	2.089
37.083	8.900	2.020	2.093
37.133	8.900	2.020	2.091
37.183	8.900	2.020	2.088
37.234	8.900	2.020	2.089
37.284	8.900	2.020	2.091
37.333	8.900	2.020	2.090
37.384	8.900	2.020	2.091
37.433	8.900	2.020	2.088
37.483	8.900	2.020	2.080
37.533	8.900	2.020	2.088
37.583	8.900	2.020	2.092
37.633	8.900	2.020	2.090
37.684	8.900	2.020	2.091
37.734	8.900	2.020	2.087
37.783	8.900	2.020	2.089
37.833	8.900	2.020	2.092
37.883	8.900	2.020	2.088
37.933	8.900	2.020	2.090
37.983	8.900	2.020	2.091
38.033	8.900	2.020	2.092
38.083	8.900	2.020	2.089
38.133	8.900	2.020	2.090
38.184	8.900	2.020	2.092
38.233	8.900	2.020	2.091
38.283	8.900	2.020	2.087
38.334	8.900	2.020	2.092
38.384	8.900	2.020	2.088
38.433	8.900	2.020	2.088
38.484	8.900	2.020	2.088
38.534	8.900	2.020	2.092
38.584	8.900	2.020	2.078
